Day fraction since midnight on 	Accumulator pressure (Pa)	DO probe (mg/L)	Lab Air supply pressure (Pa)	air valve control ()	Max calibration pressure (Pa)	source pressure (Pa)	Max calibration pressure ()	Delta P ()	air flow rate(R * T )/ V ()	Fill time (s)	air fill model (Pa)
0.666798842	8463.217773	4.848012924	22480.25977	0.774955915	20232.23379	22480.25977	20232.23379	10232.23379	1963.2	5.212018026	20232.23379
0.666856693	8835.202148	4.944323063	21876.24414	0.801199091	19688.61973	21876.24414	19688.61973	9688.619727	1963.2	4.935115998	19688.61973
0.666914555	8964.677734	5.096382618	21433.1875	0.815123381	19289.86875	21433.1875	19289.86875	9289.86875	1963.2	4.732003235	19289.86875
0.66697242	9000.039063	5.271180153	21433.1875	0.811653708	19289.86875	21433.1875	19289.86875	9289.86875	1963.2	4.732003235	19289.86875
0.667030286	9168.47168	5.438315392	21244.40039	0.838624976	19119.96035	21244.40039	19119.96035	9119.960352	1963.2	4.645456577	19119.96035
0.667088159	9580.662109	5.586161137	21262.49609	0.846302762	19136.24648	21262.49609	19136.24648	9136.246484	1963.2	4.653752284	19136.24648
0.667146026	9708.060547	5.727688789	21256.11719	0.840825637	19130.50547	21256.11719	19130.50547	9130.505469	1963.2	4.650827969	19130.50547
0.66720391	9669.081055	5.868597031	21203.56445	0.849934777	19083.20801	21203.56445	19083.20801	9083.208008	1963.2	4.626735945	19083.20801
0.667261788	9790.452148	6.011238575	21213.31641	0.850714625	19091.98477	21213.31641	19091.98477	9091.984766	1963.2	4.631206584	19091.98477
0.667319658	9832.68457	6.1471591	21206.50391	0.851685043	19085.85352	21206.50391	19085.85352	9085.853516	1963.2	4.628083494	19085.85352
0.667377514	9832.692383	6.285540104	21175.18555	0.852765486	19057.66699	21175.18555	19057.66699	9057.666992	1963.2	4.613726056	19057.66699
0.667435391	9621.830078	6.382538319	21185.13867	0.841652361	19066.6248	21185.13867	19066.6248	9066.624805	1963.2	4.618288918	19066.6248
0.667493252	9700.664063	6.487361431	21152.2207	0.850826186	19036.99863	21152.2207	19036.99863	9036.998633	1963.2	4.603198163	19036.99863
0.667551116	9869.911133	6.600699425	21182.16992	0.855965766	19063.95293	21182.16992	19063.95293	9063.95293	1963.2	4.616927939	19063.95293
0.667608998	9817.389648	6.716629028	21192.66797	0.859241241	19073.40117	21192.66797	19073.40117	9073.401172	1963.2	4.621740613	19073.40117
0.667666875	9853.567383	6.814681053	21167.3457	0.852635546	19050.61113	21167.3457	19050.61113	9050.611133	1963.2	4.610131995	19050.61113
0.667724754	9835.045898	6.901268959	21155.06055	0.855092288	19039.55449	21155.06055	19039.55449	9039.554492	1963.2	4.604500047	19039.55449
0.667782606	9853.455078	6.980463505	21146.04883	0.860363554	19031.44395	21146.04883	19031.44395	9031.443945	1963.2	4.600368758	19031.44395
0.667840468	9826.163086	7.040526867	21129.85352	0.856386488	19016.86816	21129.85352	19016.86816	9016.868164	1963.2	4.592944256	19016.86816
0.667898345	9806.206055	7.145243168	21131.15039	0.853012231	19018.03535	21131.15039	19018.03535	9018.035352	1963.2	4.59353879	19018.03535
0.667956204	9807.613281	7.25483036	21141.15234	0.854922241	19027.03711	21141.15234	19027.03711	9027.037109	1963.2	4.598124037	19027.03711
0.668014091	9820.025391	7.337551594	21126.0332	0.853436682	19013.42988	21126.0332	19013.42988	9013.429883	1963.2	4.591192891	19013.42988
0.668071941	9692.060547	7.395806789	21124.2793	0.84222595	19011.85137	21124.2793	19011.85137	9011.851367	1963.2	4.590388838	19011.85137
0.668129812	9377.416992	7.459497452	21101.04492	0.84041033	18990.94043	21101.04492	18990.94043	8990.94043	1963.2	4.579737383	18990.94043
0.668187694	9229.740234	7.539214134	21152.00977	0.830427548	19036.80879	21152.00977	19036.80879	9036.808789	1963.2	4.603101461	19036.80879
0.668245555	9253.448242	7.605845451	21152.64453	0.832800092	19037.38008	21152.64453	19037.38008	9037.380078	1963.2	4.60339246	19037.38008
0.668303409	9174.513672	7.634296894	21178.71094	0.828862887	19060.83984	21178.71094	19060.83984	9060.839844	1963.2	4.615342219	19060.83984
0.668361292	9210.558594	7.702147961	21176.26953	0.833014755	19058.64258	21176.26953	19058.64258	9058.642578	1963.2	4.614222992	19058.64258
0.668419164	9496.695313	7.751202107	21151.79297	0.847612108	19036.61367	21151.79297	19036.61367	9036.613672	1963.2	4.603002074	19036.61367
0.668477041	9679.910156	7.797346592	21162.22461	0.852551146	19046.00215	21162.22461	19046.00215	9046.002148	1963.2	4.607784305	19046.00215
0.668534898	9716.722656	7.84541893	21162.68945	0.848165267	19046.42051	21162.68945	19046.42051	9046.420508	1963.2	4.607997406	19046.42051
0.668592771	9700.491211	7.904211044	21114.53906	0.855519591	19003.08516	21114.53906	19003.08516	9003.085156	1963.2	4.585923572	19003.08516
0.668650647	9708.953125	7.924864292	21086.42188	0.851581799	18977.77969	21086.42188	18977.77969	8977.779688	1963.2	4.573033663	18977.77969
0.668708505	9736.675781	7.975531101	21061.74609	0.855285225	18955.57148	21061.74609	18955.57148	8955.571484	1963.2	4.561721416	18955.57148
0.66876639	9719.143555	8.012784004	21026.19336	0.854731484	18923.57402	21026.19336	18923.57402	8923.574023	1963.2	4.545422791	18923.57402
0.668824255	9753.743164	8.07461071	21031.35742	0.85722139	18928.22168	21031.35742	18928.22168	8928.22168	1963.2	4.547790179	18928.22168
0.668882116	9701.265625	8.106786728	21028.10938	0.856400481	18925.29844	21028.10938	18925.29844	8925.298438	1963.2	4.54630116	18925.29844
0.668939994	9714.03125	8.136070252	20987.02148	0.858928552	18888.31934	20987.02148	18888.31934	8888.319336	1963.2	4.527465024	18888.31934
0.668997846	9729.942383	8.17983532	21004.94336	0.854082902	18904.44902	21004.94336	18904.44902	8904.449023	1963.2	4.535681043	18904.44902
0.669055741	9698.420898	8.206064224	20973.73438	0.854577219	18876.36094	20973.73438	18876.36094	8876.360938	1963.2	4.521373746	18876.36094
0.66911362	9744.760742	8.258586884	20963.7793	0.858727308	18867.40137	20963.7793	18867.40137	8867.401367	1963.2	4.516809987	18867.40137
0.669171472	9767.654297	8.259583473	20979.36133	0.859684507	18881.4252	20979.36133	18881.4252	8881.425195	1963.2	4.523953339	18881.4252
0.669229356	9838.986328	8.283522606	21078.79492	0.86167155	18970.91543	21078.79492	18970.91543	8970.91543	1963.2	4.569537199	18970.91543
0.669287199	9849.222656	8.30766201	21168.61523	0.855678257	19051.75371	21168.61523	19051.75371	9051.753711	1963.2	4.610713993	19051.75371
0.669345063	9955.916016	8.340512276	21318.26758	0.855298748	19186.44082	21318.26758	19186.44082	9186.44082	1963.2	4.679319896	19186.44082
0.669402945	9957.868164	8.362703323	21455.85352	0.849456933	19310.26816	21455.85352	19310.26816	9310.268164	1963.2	4.742394134	19310.26816
0.669460827	9968.621094	8.40382576	21561.16016	0.845479388	19405.04414	21561.16016	19405.04414	9405.044141	1963.2	4.790670406	19405.04414
0.669518686	10038.8291	8.4460392	21691.65625	0.839476225	19522.49063	21691.65625	19522.49063	9522.490625	1963.2	4.85049441	19522.49063
0.669576559	10070.25781	8.463870049	21798.17188	0.83421059	19618.35469	21798.17188	19618.35469	9618.354688	1963.2	4.899324922	19618.35469
0.669634412	10037.66504	8.4556036	21916.69531	0.835343126	19725.02578	21916.69531	19725.02578	9725.025781	1963.2	4.953660239	19725.02578
0.6696923	10091.68555	8.494413376	21983.10742	0.8328536	19784.79668	21983.10742	19784.79668	9784.79668	1963.2	4.984105888	19784.79668
0.669750168	10152.77051	8.509568214	21943.71875	0.834202413	19749.34688	21943.71875	19749.34688	9749.346875	1963.2	4.966048734	19749.34688
0.66980802	10156.39551	8.529603958	22052.00391	0.834042679	19846.80352	22052.00391	19846.80352	9846.803516	1963.2	5.015690462	19846.80352
0.669865907	9981.234375	8.552476883	22168.31641	0.817389899	19951.48477	22168.31641	19951.48477	9951.484766	1963.2	5.069012207	19951.48477
0.669923751	9743.427734	8.558391571	22233.46289	0.812558611	20010.1166	22233.46289	20010.1166	10010.1166	1963.2	5.09887765	20010.1166
0.669981636	9641.019531	8.584382057	22318.18555	0.809425013	20086.36699	22318.18555	20086.36699	10086.36699	1963.2	5.137717498	20086.36699
0.670039455	9652.552734	8.599927902	22428.45508	0.803833983	20185.60957	22428.45508	20185.60957	10185.60957	1963.2	5.188268934	20185.60957
0.670097375	9666.117188	8.626276016	22477.7207	0.800685921	20229.94863	22477.7207	20229.94863	10229.94863	1963.2	5.210854031	20229.94863
0.670155225	9663.954102	8.618947983	22512.97461	0.798696745	20261.67715	22512.97461	20261.67715	10261.67715	1963.2	5.227015662	20261.67715
0.670213118	9677.279297	8.625201225	22586.81641	0.799485275	20328.13477	22586.81641	20328.13477	10328.13477	1963.2	5.260867342	20328.13477
0.670270979	9703.420898	8.672974587	22594.23242	0.797962443	20334.80918	22594.23242	20334.80918	10334.80918	1963.2	5.264267105	20334.80918
0.670328764	9690.847656	8.683222771	22594.86328	0.79794135	20335.37695	22594.86328	20335.37695	10335.37695	1963.2	5.264556313	20335.37695
0.67038672	9713.990234	8.685602188	22626.20508	0.799872404	20363.58457	22626.20508	20363.58457	10363.58457	1963.2	5.278924496	20363.58457
0.670444604	9655.413086	8.686170578	22626.20508	0.797951049	20363.58457	22626.20508	20363.58457	10363.58457	1963.2	5.278924496	20363.58457
0.670502458	9703.019531	8.694820404	22657.94727	0.799882329	20392.15254	22657.94727	20392.15254	10392.15254	1963.2	5.293476232	20392.15254
0.67056034	9819.476563	8.710316658	22666.25	0.806518318	20399.625	22666.25	20399.625	10399.625	1963.2	5.297282498	20399.625
0.670618196	9882.717773	8.734788895	22699.02539	0.806833993	20429.12285	22699.02539	20429.12285	10429.12285	1963.2	5.312307891	20429.12285
0.67067608	9984.047852	8.769778252	22891.41406	0.799464244	20602.27266	22891.41406	20602.27266	10602.27266	1963.2	5.400505632	20602.27266
0.67073394	10022.08203	8.741446495	23044.53125	0.795249378	20740.07813	23044.53125	20740.07813	10740.07813	1963.2	5.470699941	20740.07813
0.670791811	10071.72656	8.743414879	23114.77148	0.795905609	20803.29434	23114.77148	20803.29434	10803.29434	1963.2	5.502900538	20803.29434
0.670849686	9896.729492	8.767231941	23146.92188	0.782129674	20832.22969	23146.92188	20832.22969	10832.22969	1963.2	5.517639409	20832.22969
0.670907549	10014.51172	8.774507523	23169.32617	0.787106302	20852.39355	23169.32617	20852.39355	10852.39355	1963.2	5.527910327	20852.39355
0.670965408	10098.73926	8.7780056	23204.62109	0.792044579	20884.15898	23204.62109	20884.15898	10884.15898	1963.2	5.544090762	20884.15898
0.671023282	10204.85547	8.773615837	23204.08984	0.793337619	20883.68086	23204.08984	20883.68086	10883.68086	1963.2	5.543847219	20883.68086
0.671081149	10151.49609	8.795816422	23198.77344	0.789612796	20878.89609	23198.77344	20878.89609	10878.89609	1963.2	5.541409991	20878.89609
0.671139022	10221.21582	8.802362442	23166.07617	0.793794981	20849.46855	23166.07617	20849.46855	10849.46855	1963.2	5.526420413	20849.46855
0.671196882	10216.82227	8.819849014	23126.69336	0.797567313	20814.02402	23126.69336	20814.02402	10814.02402	1963.2	5.508365945	20814.02402
0.671254784	10179.68262	8.835313797	23142.25977	0.793249304	20828.03379	23142.25977	20828.03379	10828.03379	1963.2	5.515502134	20828.03379
0.671312627	10163.98047	8.847047806	23010.46484	0.798810939	20709.41836	23010.46484	20709.41836	10709.41836	1963.2	5.455082701	20709.41836
0.671370518	10115.3916	8.826033592	22766.08594	0.808583361	20489.47734	22766.08594	20489.47734	10489.47734	1963.2	5.343050807	20489.47734
0.67142836	10052.41406	8.755839348	22647.72461	0.803275371	20382.95215	22647.72461	20382.95215	10382.95215	1963.2	5.288789807	20382.95215
0.671486234	9897.435547	8.653671265	22527.29492	0.806681999	20274.56543	22527.29492	20274.56543	10274.56543	1963.2	5.233580598	20274.56543
0.671544115	9977.837891	8.609377861	21997.79688	0.837044796	19798.01719	21997.79688	19798.01719	9798.017188	1963.2	4.990840051	19798.01719
0.671601995	10249.96777	8.615038872	21484.31641	0.858926601	19335.88477	21484.31641	19335.88477	9335.884766	1963.2	4.755442525	19335.88477
0.671659825	10356.74609	8.610779762	21355.01953	0.869010728	19219.51758	21355.01953	19219.51758	9219.517578	1963.2	4.696168286	19219.51758
0.671717718	10449.87109	8.596713066	21645.25	0.859043631	19480.725	21645.25	19480.725	9480.725	1963.2	4.829220151	19480.725
0.671775579	10472.23926	8.58497715	21871.89063	0.849570964	19684.70156	21871.89063	19684.70156	9684.701563	1963.2	4.933120193	19684.70156
0.671833463	10544.99609	8.563715935	22048.03711	0.846597791	19843.2334	22048.03711	19843.2334	9843.233398	1963.2	5.013871943	19843.2334
0.671891344	10602.38184	8.573515892	22148.33008	0.840884033	19933.49707	22148.33008	19933.49707	9933.49707	1963.2	5.059849771	19933.49707
0.671949192	10451.08496	8.563611031	22219.83789	0.83200141	19997.8541	22219.83789	19997.8541	9997.854102	1963.2	5.09263147	19997.8541
0.672007086	10304.71094	8.577682495	22315.04492	0.823359926	20083.54043	22315.04492	20083.54043	10083.54043	1963.2	5.136277725	20083.54043
0.672064927	10202.35938	8.580980301	22396.73828	0.822353188	20157.06445	22396.73828	20157.06445	10157.06445	1963.2	5.173728837	20157.06445
0.672122801	10154.23828	8.591207504	22466.92188	0.816383027	20220.22969	22466.92188	20220.22969	10220.22969	1963.2	5.205903468	20220.22969
0.672180672	9985.193359	8.605304718	22451.23438	0.811709099	20206.11094	22451.23438	20206.11094	10206.11094	1963.2	5.198711765	20206.11094
0.672238539	9902.479492	8.60585022	22219.08398	0.819345311	19997.17559	22219.08398	19997.17559	9997.175586	1963.2	5.092285853	19997.17559
0.672296311	9930.006836	8.593136787	21503.03906	0.845363728	19352.73516	21503.03906	19352.73516	9352.735156	1963.2	4.76402565	19352.73516
0.672354271	10008.74805	6.569035053	21188.3125	0.858601008	19069.48125	21188.3125	19069.48125	9069.48125	1963.2	4.619743913	19069.48125
0.67241217	10034.36621	2.586057663	21066.63477	0.867719589	18959.97129	21066.63477	18959.97129	8959.971289	1963.2	4.563962556	18959.97129
0.672470029	10037.01758	1.114011765	21073.88281	0.860844052	18966.49453	21073.88281	18966.49453	8966.494531	1963.2	4.567285315	18966.49453
0.672527878	9981.420898	0.605032444	21124.53906	0.863920916	19012.08516	21124.53906	19012.08516	9012.085156	1963.2	4.590507924	19012.08516
0.672585753	9992.521484	0.398383856	21169.04492	0.85579305	19052.14043	21169.04492	19052.14043	9052.14043	1963.2	4.610910977	19052.14043
0.672643605	9978.358398	0.297455668	21182.87695	0.864639158	19064.58926	21182.87695	19064.58926	9064.589258	1963.2	4.617252067	19064.58926
0.672701512	9966.052734	0.238145486	21213.94922	0.855823622	19092.5543	21213.94922	19092.5543	9092.554297	1963.2	4.631496688	19092.5543
0.672759342	10018.58789	0.200001806	21219.0625	0.858702438	19097.15625	21219.0625	19097.15625	9097.15625	1963.2	4.633840796	19097.15625
0.672817241	9951.801758	0.169408888	21211.18164	0.850852708	19090.06348	21211.18164	19090.06348	9090.063477	1963.2	4.630227932	19090.06348
0.672875092	9917.063477	0.151550338	21197.21484	0.860526862	19077.49336	21197.21484	19077.49336	9077.493359	1963.2	4.623825061	19077.49336
0.672932961	9948.701172	0.136238068	21172.42969	0.85742154	19055.18672	21172.42969	19055.18672	9055.186719	1963.2	4.612462673	19055.18672
0.67299085	9926.276367	0.120703019	21187.33984	0.852018466	19068.60586	21187.33984	19068.60586	9068.605859	1963.2	4.619298013	19068.60586
0.673048678	9750.798828	0.115181446	21164.80859	0.854822471	19048.32773	21164.80859	19048.32773	9048.327734	1963.2	4.608968895	19048.32773
0.673106575	9562.560547	0.099914342	21179.25195	0.837887184	19061.32676	21179.25195	19061.32676	9061.326758	1963.2	4.615590239	19061.32676
0.67316444	9476.28418	0.097046681	21168.82031	0.840112349	19051.93828	21168.82031	19051.93828	9051.938281	1963.2	4.610808008	19051.93828
0.673222342	9610.977539	0.09098319	21184.1582	0.851712234	19065.74238	21184.1582	19065.74238	9065.742383	1963.2	4.617839437	19065.74238
0.673280211	9744.074219	0.085528612	21200.60547	0.850520585	19080.54492	21200.60547	19080.54492	9080.544922	1963.2	4.625379443	19080.54492
0.673338042	9754.780273	0.081026904	21200.39063	0.849568021	19080.35156	21200.39063	19080.35156	9080.351563	1963.2	4.625280951	19080.35156
0.673395933	9909.609375	0.078446008	21166.68945	0.857890057	19050.02051	21166.68945	19050.02051	9050.020508	1963.2	4.609831147	19050.02051
0.673453784	10029.4707	0.073890112	21338.27734	0.858078476	19204.44961	21338.27734	19204.44961	9204.449609	1963.2	4.688493077	19204.44961
0.673511665	10068.19824	0.0746473	21840.67969	0.833417979	19656.61172	21840.67969	19656.61172	9656.611719	1963.2	4.918812	19656.61172
0.673569552	9814.761719	0.067614377	22211.87891	0.813852105	19990.69102	22211.87891	19990.69102	9990.691016	1963.2	5.088982791	19990.69102
0.673627406	9673.704102	0.066164739	22423.13672	0.800034413	20180.82305	22423.13672	20180.82305	10180.82305	1963.2	5.18583081	20180.82305
0.67368527	9590.811523	0.065640129	22526.65234	0.798149478	20273.98711	22526.65234	20273.98711	10273.98711	1963.2	5.233286017	20273.98711
0.673743131	9498.53418	0.061370246	22550.64648	0.796432065	20295.58184	22550.64648	20295.58184	10295.58184	1963.2	5.244285776	20295.58184
0.673801019	9609.322266	0.058384411	22501.86719	0.800300203	20251.68047	22501.86719	20251.68047	10251.68047	1963.2	5.221923629	20251.68047
0.673858882	9590.976563	0.0560105	22513.30859	0.795047348	20261.97773	22513.30859	20261.97773	10261.97773	1963.2	5.227168773	20261.97773
0.673916738	9508.253906	0.060322531	22513.30859	0.796938906	20261.97773	22513.30859	20261.97773	10261.97773	1963.2	5.227168773	20261.97773
0.673974609	9507.505859	0.061768405	22437.45313	0.796904166	20193.70781	22437.45313	20193.70781	10193.70781	1963.2	5.192393955	20193.70781
0.674032511	9483.862305	0.055749323	22414.58984	0.798665917	20173.13086	22414.58984	20173.13086	10173.13086	1963.2	5.181912622	20173.13086
0.674090355	9443.526367	0.055876523	22374.38672	0.798069141	20136.94805	22374.38672	20136.94805	10136.94805	1963.2	5.163482094	20136.94805
0.674148218	9461.494141	0.048842847	22351.39453	0.800312897	20116.25508	22351.39453	20116.25508	10116.25508	1963.2	5.152941666	20116.25508
0.674206095	9372.876953	0.050468609	22316.94531	0.801631371	20085.25078	22316.94531	20085.25078	10085.25078	1963.2	5.137148931	20085.25078
0.674263978	9427.370117	0.048348345	22303.27734	0.802182039	20072.94961	22303.27734	20072.94961	10072.94961	1963.2	5.130883053	20072.94961
0.674321837	9455.420898	0.047065798	22324.15039	0.799135672	20091.73535	22324.15039	20091.73535	10091.73535	1963.2	5.140451992	20091.73535
0.674379685	9341.957031	0.045572508	22295.19141	0.799729979	20065.67227	22295.19141	20065.67227	10065.67227	1963.2	5.127176174	20065.67227
0.674437583	9337.323242	0.046837743	22275.64648	0.803423043	20048.08184	22275.64648	20048.08184	10048.08184	1963.2	5.118216094	20048.08184
0.674495444	9315.000977	0.045936801	22253.25391	0.801106474	20027.92852	22253.25391	20027.92852	10027.92852	1963.2	5.107950548	20027.92852
0.674553315	9336.595703	0.046042927	22241.95703	0.796417543	20017.76133	22241.95703	20017.76133	10017.76133	1963.2	5.102771663	20017.76133
0.674611159	9471.095703	0.043694604	22217.29102	0.803055193	19995.56191	22217.29102	19995.56191	9995.561914	1963.2	5.091463893	19995.56191
0.674669051	9459.478516	0.041672185	22212.38477	0.806854443	19991.14629	22212.38477	19991.14629	9991.146289	1963.2	5.089214695	19991.14629
0.674726917	9391.163086	0.039980941	22184.2832	0.800551832	19965.85488	22184.2832	19965.85488	9965.854883	1963.2	5.076331949	19965.85488
0.674784793	9445.913086	0.042230666	22270.29492	0.804630021	20043.26543	22270.29492	20043.26543	10043.26543	1963.2	5.115762749	20043.26543
0.674842661	9433.418945	0.042422593	22360.12695	0.803549353	20124.11426	22360.12695	20124.11426	10124.11426	1963.2	5.156944915	20124.11426
0.674900528	9394.729492	0.039997499	22423.91602	0.794038248	20181.52441	22423.91602	20181.52441	10181.52441	1963.2	5.186188068	20181.52441
0.674958403	9402.128906	0.064843804	22424.33984	0.79283095	20181.90586	22424.33984	20181.90586	10181.90586	1963.2	5.186382365	20181.90586
